# E (eV)   ldos(E)   pdos(E)   
  -6.113  0.307E-04  0.307E-04
  -6.103  0.479E-04  0.479E-04
  -6.093  0.740E-04  0.740E-04
  -6.083  0.113E-03  0.113E-03
  -6.073  0.171E-03  0.171E-03
  -6.063  0.255E-03  0.255E-03
  -6.053  0.378E-03  0.378E-03
  -6.043  0.553E-03  0.553E-03
  -6.033  0.801E-03  0.801E-03
  -6.023  0.115E-02  0.115E-02
  -6.013  0.163E-02  0.163E-02
  -6.003  0.229E-02  0.229E-02
  -5.993  0.318E-02  0.318E-02
  -5.983  0.437E-02  0.437E-02
  -5.973  0.595E-02  0.595E-02
  -5.963  0.802E-02  0.802E-02
  -5.953  0.107E-01  0.107E-01
  -5.943  0.141E-01  0.141E-01
  -5.933  0.184E-01  0.184E-01
  -5.923  0.238E-01  0.238E-01
  -5.913  0.305E-01  0.305E-01
  -5.903  0.386E-01  0.386E-01
  -5.893  0.483E-01  0.483E-01
  -5.883  0.600E-01  0.600E-01
  -5.873  0.737E-01  0.737E-01
  -5.863  0.896E-01  0.896E-01
  -5.853  0.108E+00  0.108E+00
  -5.843  0.129E+00  0.129E+00
  -5.833  0.152E+00  0.152E+00
  -5.823  0.177E+00  0.177E+00
  -5.813  0.205E+00  0.205E+00
  -5.803  0.235E+00  0.235E+00
  -5.793  0.267E+00  0.267E+00
  -5.783  0.300E+00  0.300E+00
  -5.773  0.334E+00  0.334E+00
  -5.763  0.369E+00  0.369E+00
  -5.753  0.404E+00  0.404E+00
  -5.743  0.438E+00  0.438E+00
  -5.733  0.470E+00  0.470E+00
  -5.723  0.501E+00  0.501E+00
  -5.713  0.529E+00  0.529E+00
  -5.703  0.555E+00  0.555E+00
  -5.693  0.577E+00  0.577E+00
  -5.683  0.595E+00  0.595E+00
  -5.673  0.609E+00  0.609E+00
  -5.663  0.620E+00  0.620E+00
  -5.653  0.626E+00  0.626E+00
  -5.643  0.628E+00  0.628E+00
  -5.633  0.627E+00  0.627E+00
  -5.623  0.621E+00  0.621E+00
  -5.613  0.613E+00  0.613E+00
  -5.603  0.602E+00  0.602E+00
  -5.593  0.588E+00  0.588E+00
  -5.583  0.573E+00  0.573E+00
  -5.573  0.556E+00  0.556E+00
  -5.563  0.538E+00  0.538E+00
  -5.553  0.519E+00  0.519E+00
  -5.543  0.500E+00  0.500E+00
  -5.533  0.481E+00  0.481E+00
  -5.523  0.463E+00  0.463E+00
  -5.513  0.445E+00  0.445E+00
  -5.503  0.429E+00  0.429E+00
  -5.493  0.413E+00  0.413E+00
  -5.483  0.398E+00  0.398E+00
  -5.473  0.385E+00  0.385E+00
  -5.463  0.373E+00  0.373E+00
  -5.453  0.362E+00  0.362E+00
  -5.443  0.352E+00  0.352E+00
  -5.433  0.343E+00  0.343E+00
  -5.423  0.335E+00  0.335E+00
  -5.413  0.327E+00  0.327E+00
  -5.403  0.320E+00  0.320E+00
  -5.393  0.314E+00  0.314E+00
  -5.383  0.307E+00  0.307E+00
  -5.373  0.301E+00  0.301E+00
  -5.363  0.295E+00  0.295E+00
  -5.353  0.288E+00  0.288E+00
  -5.343  0.282E+00  0.282E+00
  -5.333  0.275E+00  0.275E+00
  -5.323  0.268E+00  0.268E+00
  -5.313  0.262E+00  0.262E+00
  -5.303  0.255E+00  0.255E+00
  -5.293  0.248E+00  0.248E+00
  -5.283  0.242E+00  0.242E+00
  -5.273  0.236E+00  0.236E+00
  -5.263  0.230E+00  0.230E+00
  -5.253  0.225E+00  0.225E+00
  -5.243  0.220E+00  0.220E+00
  -5.233  0.217E+00  0.217E+00
  -5.223  0.213E+00  0.213E+00
  -5.213  0.211E+00  0.211E+00
  -5.203  0.209E+00  0.209E+00
  -5.193  0.208E+00  0.208E+00
  -5.183  0.207E+00  0.207E+00
  -5.173  0.207E+00  0.207E+00
  -5.163  0.207E+00  0.207E+00
  -5.153  0.208E+00  0.208E+00
  -5.143  0.209E+00  0.209E+00
  -5.133  0.210E+00  0.210E+00
  -5.123  0.210E+00  0.210E+00
  -5.113  0.211E+00  0.211E+00
  -5.103  0.211E+00  0.211E+00
  -5.093  0.211E+00  0.211E+00
  -5.083  0.210E+00  0.210E+00
  -5.073  0.209E+00  0.209E+00
  -5.063  0.207E+00  0.207E+00
  -5.053  0.204E+00  0.204E+00
  -5.043  0.200E+00  0.200E+00
  -5.033  0.196E+00  0.196E+00
  -5.023  0.191E+00  0.191E+00
  -5.013  0.186E+00  0.186E+00
  -5.003  0.180E+00  0.180E+00
  -4.993  0.174E+00  0.174E+00
  -4.983  0.168E+00  0.168E+00
  -4.973  0.162E+00  0.162E+00
  -4.963  0.156E+00  0.156E+00
  -4.953  0.150E+00  0.150E+00
  -4.943  0.145E+00  0.145E+00
  -4.933  0.141E+00  0.141E+00
  -4.923  0.137E+00  0.137E+00
  -4.913  0.134E+00  0.134E+00
  -4.903  0.132E+00  0.132E+00
  -4.893  0.131E+00  0.131E+00
  -4.883  0.131E+00  0.131E+00
  -4.873  0.132E+00  0.132E+00
  -4.863  0.135E+00  0.135E+00
  -4.853  0.138E+00  0.138E+00
  -4.843  0.141E+00  0.141E+00
  -4.833  0.146E+00  0.146E+00
  -4.823  0.151E+00  0.151E+00
  -4.813  0.156E+00  0.156E+00
  -4.803  0.161E+00  0.161E+00
  -4.793  0.166E+00  0.166E+00
  -4.783  0.171E+00  0.171E+00
  -4.773  0.175E+00  0.175E+00
  -4.763  0.179E+00  0.179E+00
  -4.753  0.182E+00  0.182E+00
  -4.743  0.184E+00  0.184E+00
  -4.733  0.184E+00  0.184E+00
  -4.723  0.184E+00  0.184E+00
  -4.713  0.182E+00  0.182E+00
  -4.703  0.179E+00  0.179E+00
  -4.693  0.175E+00  0.175E+00
  -4.683  0.170E+00  0.170E+00
  -4.673  0.163E+00  0.163E+00
  -4.663  0.156E+00  0.156E+00
  -4.653  0.148E+00  0.148E+00
  -4.643  0.140E+00  0.140E+00
  -4.633  0.131E+00  0.131E+00
  -4.623  0.123E+00  0.123E+00
  -4.613  0.114E+00  0.114E+00
  -4.603  0.106E+00  0.106E+00
  -4.593  0.989E-01  0.989E-01
  -4.583  0.923E-01  0.923E-01
  -4.573  0.867E-01  0.867E-01
  -4.563  0.822E-01  0.822E-01
  -4.553  0.790E-01  0.790E-01
  -4.543  0.771E-01  0.771E-01
  -4.533  0.766E-01  0.766E-01
  -4.523  0.775E-01  0.775E-01
  -4.513  0.797E-01  0.797E-01
  -4.503  0.832E-01  0.832E-01
  -4.493  0.879E-01  0.879E-01
  -4.483  0.937E-01  0.937E-01
  -4.473  0.100E+00  0.100E+00
  -4.463  0.108E+00  0.108E+00
  -4.453  0.116E+00  0.116E+00
  -4.443  0.124E+00  0.124E+00
  -4.433  0.133E+00  0.133E+00
  -4.423  0.142E+00  0.142E+00
  -4.413  0.150E+00  0.150E+00
  -4.403  0.157E+00  0.157E+00
  -4.393  0.164E+00  0.164E+00
  -4.383  0.170E+00  0.170E+00
  -4.373  0.175E+00  0.175E+00
  -4.363  0.178E+00  0.178E+00
  -4.353  0.180E+00  0.180E+00
  -4.343  0.181E+00  0.181E+00
  -4.333  0.180E+00  0.180E+00
  -4.323  0.177E+00  0.177E+00
  -4.313  0.173E+00  0.173E+00
  -4.303  0.168E+00  0.168E+00
  -4.293  0.161E+00  0.161E+00
  -4.283  0.153E+00  0.153E+00
  -4.273  0.145E+00  0.145E+00
  -4.263  0.135E+00  0.135E+00
  -4.253  0.125E+00  0.125E+00
  -4.243  0.115E+00  0.115E+00
  -4.233  0.105E+00  0.105E+00
  -4.223  0.949E-01  0.949E-01
  -4.213  0.853E-01  0.853E-01
  -4.203  0.763E-01  0.763E-01
  -4.193  0.680E-01  0.680E-01
  -4.183  0.608E-01  0.608E-01
  -4.173  0.545E-01  0.545E-01
  -4.163  0.495E-01  0.495E-01
  -4.153  0.457E-01  0.457E-01
  -4.143  0.433E-01  0.433E-01
  -4.133  0.422E-01  0.422E-01
  -4.123  0.424E-01  0.424E-01
  -4.113  0.441E-01  0.441E-01
  -4.103  0.472E-01  0.472E-01
  -4.093  0.515E-01  0.515E-01
  -4.083  0.572E-01  0.572E-01
  -4.073  0.641E-01  0.641E-01
  -4.063  0.720E-01  0.720E-01
  -4.053  0.810E-01  0.810E-01
  -4.043  0.907E-01  0.907E-01
  -4.033  0.101E+00  0.101E+00
  -4.023  0.112E+00  0.112E+00
  -4.013  0.123E+00  0.123E+00
  -4.003  0.133E+00  0.133E+00
  -3.993  0.144E+00  0.144E+00
  -3.983  0.154E+00  0.154E+00
  -3.973  0.163E+00  0.163E+00
  -3.963  0.171E+00  0.171E+00
  -3.953  0.177E+00  0.177E+00
  -3.943  0.182E+00  0.182E+00
  -3.933  0.185E+00  0.185E+00
  -3.923  0.186E+00  0.186E+00
  -3.913  0.186E+00  0.186E+00
  -3.903  0.184E+00  0.184E+00
  -3.893  0.180E+00  0.180E+00
  -3.883  0.174E+00  0.174E+00
  -3.873  0.167E+00  0.167E+00
  -3.863  0.159E+00  0.159E+00
  -3.853  0.149E+00  0.149E+00
  -3.843  0.139E+00  0.139E+00
  -3.833  0.128E+00  0.128E+00
  -3.823  0.117E+00  0.117E+00
  -3.813  0.106E+00  0.106E+00
  -3.803  0.954E-01  0.954E-01
  -3.793  0.850E-01  0.850E-01
  -3.783  0.752E-01  0.752E-01
  -3.773  0.663E-01  0.663E-01
  -3.763  0.582E-01  0.582E-01
  -3.753  0.512E-01  0.512E-01
  -3.743  0.453E-01  0.453E-01
  -3.733  0.406E-01  0.406E-01
  -3.723  0.372E-01  0.372E-01
  -3.713  0.350E-01  0.350E-01
  -3.703  0.341E-01  0.341E-01
  -3.693  0.345E-01  0.345E-01
  -3.683  0.362E-01  0.362E-01
  -3.673  0.392E-01  0.392E-01
  -3.663  0.434E-01  0.434E-01
  -3.653  0.489E-01  0.489E-01
  -3.643  0.556E-01  0.556E-01
  -3.633  0.634E-01  0.634E-01
  -3.623  0.722E-01  0.722E-01
  -3.613  0.818E-01  0.818E-01
  -3.603  0.923E-01  0.923E-01
  -3.593  0.103E+00  0.103E+00
  -3.583  0.115E+00  0.115E+00
  -3.573  0.127E+00  0.127E+00
  -3.563  0.138E+00  0.138E+00
  -3.553  0.150E+00  0.150E+00
  -3.543  0.161E+00  0.161E+00
  -3.533  0.171E+00  0.171E+00
  -3.523  0.180E+00  0.180E+00
  -3.513  0.189E+00  0.189E+00
  -3.503  0.196E+00  0.196E+00
  -3.493  0.202E+00  0.202E+00
  -3.483  0.206E+00  0.206E+00
  -3.473  0.209E+00  0.209E+00
  -3.463  0.211E+00  0.211E+00
  -3.453  0.211E+00  0.211E+00
  -3.443  0.210E+00  0.210E+00
  -3.433  0.207E+00  0.207E+00
  -3.423  0.204E+00  0.204E+00
  -3.413  0.199E+00  0.199E+00
  -3.403  0.193E+00  0.193E+00
  -3.393  0.187E+00  0.187E+00
  -3.383  0.180E+00  0.180E+00
  -3.373  0.172E+00  0.172E+00
  -3.363  0.164E+00  0.164E+00
  -3.353  0.155E+00  0.155E+00
  -3.343  0.147E+00  0.147E+00
  -3.333  0.138E+00  0.138E+00
  -3.323  0.129E+00  0.129E+00
  -3.313  0.120E+00  0.120E+00
  -3.303  0.111E+00  0.111E+00
  -3.293  0.103E+00  0.103E+00
  -3.283  0.947E-01  0.947E-01
  -3.273  0.870E-01  0.870E-01
  -3.263  0.799E-01  0.799E-01
  -3.253  0.733E-01  0.733E-01
  -3.243  0.675E-01  0.675E-01
  -3.233  0.625E-01  0.625E-01
  -3.223  0.582E-01  0.582E-01
  -3.213  0.548E-01  0.548E-01
  -3.203  0.522E-01  0.522E-01
  -3.193  0.505E-01  0.505E-01
  -3.183  0.495E-01  0.495E-01
  -3.173  0.494E-01  0.494E-01
  -3.163  0.499E-01  0.499E-01
  -3.153  0.510E-01  0.510E-01
  -3.143  0.526E-01  0.526E-01
  -3.133  0.546E-01  0.546E-01
  -3.123  0.568E-01  0.568E-01
  -3.113  0.591E-01  0.591E-01
  -3.103  0.615E-01  0.615E-01
  -3.093  0.637E-01  0.637E-01
  -3.083  0.657E-01  0.657E-01
  -3.073  0.675E-01  0.675E-01
  -3.063  0.690E-01  0.690E-01
  -3.053  0.701E-01  0.701E-01
  -3.043  0.708E-01  0.708E-01
  -3.033  0.712E-01  0.712E-01
  -3.023  0.713E-01  0.713E-01
  -3.013  0.712E-01  0.712E-01
  -3.003  0.708E-01  0.708E-01
  -2.993  0.704E-01  0.704E-01
  -2.983  0.698E-01  0.698E-01
  -2.973  0.693E-01  0.693E-01
  -2.963  0.688E-01  0.688E-01
  -2.953  0.685E-01  0.685E-01
  -2.943  0.682E-01  0.682E-01
  -2.933  0.680E-01  0.680E-01
  -2.923  0.679E-01  0.679E-01
  -2.913  0.679E-01  0.679E-01
  -2.903  0.678E-01  0.678E-01
  -2.893  0.678E-01  0.678E-01
  -2.883  0.677E-01  0.677E-01
  -2.873  0.675E-01  0.675E-01
  -2.863  0.672E-01  0.672E-01
  -2.853  0.667E-01  0.667E-01
  -2.843  0.660E-01  0.660E-01
  -2.833  0.652E-01  0.652E-01
  -2.823  0.642E-01  0.642E-01
  -2.813  0.632E-01  0.632E-01
  -2.803  0.621E-01  0.621E-01
  -2.793  0.611E-01  0.611E-01
  -2.783  0.602E-01  0.602E-01
  -2.773  0.594E-01  0.594E-01
  -2.763  0.589E-01  0.589E-01
  -2.753  0.586E-01  0.586E-01
  -2.743  0.586E-01  0.586E-01
  -2.733  0.589E-01  0.589E-01
  -2.723  0.595E-01  0.595E-01
  -2.713  0.603E-01  0.603E-01
  -2.703  0.613E-01  0.613E-01
  -2.693  0.625E-01  0.625E-01
  -2.683  0.636E-01  0.636E-01
  -2.673  0.647E-01  0.647E-01
  -2.663  0.656E-01  0.656E-01
  -2.653  0.663E-01  0.663E-01
  -2.643  0.666E-01  0.666E-01
  -2.633  0.664E-01  0.664E-01
  -2.623  0.658E-01  0.658E-01
  -2.613  0.647E-01  0.647E-01
  -2.603  0.631E-01  0.631E-01
  -2.593  0.610E-01  0.610E-01
  -2.583  0.584E-01  0.584E-01
  -2.573  0.555E-01  0.555E-01
  -2.563  0.521E-01  0.521E-01
  -2.553  0.486E-01  0.486E-01
  -2.543  0.449E-01  0.449E-01
  -2.533  0.411E-01  0.411E-01
  -2.523  0.375E-01  0.375E-01
  -2.513  0.339E-01  0.339E-01
  -2.503  0.307E-01  0.307E-01
  -2.493  0.278E-01  0.278E-01
  -2.483  0.253E-01  0.253E-01
  -2.473  0.234E-01  0.234E-01
  -2.463  0.221E-01  0.221E-01
  -2.453  0.215E-01  0.215E-01
  -2.443  0.217E-01  0.217E-01
  -2.433  0.227E-01  0.227E-01
  -2.423  0.247E-01  0.247E-01
  -2.413  0.276E-01  0.276E-01
  -2.403  0.315E-01  0.315E-01
  -2.393  0.365E-01  0.365E-01
  -2.383  0.427E-01  0.427E-01
  -2.373  0.501E-01  0.501E-01
  -2.363  0.587E-01  0.587E-01
  -2.353  0.686E-01  0.686E-01
  -2.343  0.798E-01  0.798E-01
  -2.333  0.921E-01  0.921E-01
  -2.323  0.106E+00  0.106E+00
  -2.313  0.120E+00  0.120E+00
  -2.303  0.136E+00  0.136E+00
  -2.293  0.153E+00  0.153E+00
  -2.283  0.170E+00  0.170E+00
  -2.273  0.188E+00  0.188E+00
  -2.263  0.207E+00  0.207E+00
  -2.253  0.225E+00  0.225E+00
  -2.243  0.244E+00  0.244E+00
  -2.233  0.262E+00  0.262E+00
  -2.223  0.280E+00  0.280E+00
  -2.213  0.297E+00  0.297E+00
  -2.203  0.313E+00  0.313E+00
  -2.193  0.328E+00  0.328E+00
  -2.183  0.341E+00  0.341E+00
  -2.173  0.353E+00  0.353E+00
  -2.163  0.363E+00  0.363E+00
  -2.153  0.371E+00  0.371E+00
  -2.143  0.377E+00  0.377E+00
  -2.133  0.382E+00  0.382E+00
  -2.123  0.384E+00  0.384E+00
  -2.113  0.384E+00  0.384E+00
  -2.103  0.383E+00  0.383E+00
  -2.093  0.380E+00  0.380E+00
  -2.083  0.375E+00  0.375E+00
  -2.073  0.369E+00  0.369E+00
  -2.063  0.361E+00  0.361E+00
  -2.053  0.353E+00  0.353E+00
  -2.043  0.343E+00  0.343E+00
  -2.033  0.333E+00  0.333E+00
  -2.023  0.322E+00  0.322E+00
  -2.013  0.311E+00  0.311E+00
  -2.003  0.300E+00  0.300E+00
  -1.993  0.289E+00  0.289E+00
  -1.983  0.277E+00  0.277E+00
  -1.973  0.266E+00  0.266E+00
  -1.963  0.255E+00  0.255E+00
  -1.953  0.243E+00  0.243E+00
  -1.943  0.232E+00  0.232E+00
  -1.933  0.221E+00  0.221E+00
  -1.923  0.211E+00  0.211E+00
  -1.913  0.200E+00  0.200E+00
  -1.903  0.190E+00  0.190E+00
  -1.893  0.180E+00  0.180E+00
  -1.883  0.171E+00  0.171E+00
  -1.873  0.161E+00  0.161E+00
  -1.863  0.152E+00  0.152E+00
  -1.853  0.144E+00  0.144E+00
  -1.843  0.136E+00  0.136E+00
  -1.833  0.129E+00  0.129E+00
  -1.823  0.122E+00  0.122E+00
  -1.813  0.115E+00  0.115E+00
  -1.803  0.110E+00  0.110E+00
  -1.793  0.105E+00  0.105E+00
  -1.783  0.100E+00  0.100E+00
  -1.773  0.963E-01  0.963E-01
  -1.763  0.930E-01  0.930E-01
  -1.753  0.901E-01  0.901E-01
  -1.743  0.878E-01  0.878E-01
  -1.733  0.859E-01  0.859E-01
  -1.723  0.845E-01  0.845E-01
  -1.713  0.836E-01  0.836E-01
  -1.703  0.831E-01  0.831E-01
  -1.693  0.831E-01  0.831E-01
  -1.683  0.836E-01  0.836E-01
  -1.673  0.846E-01  0.846E-01
  -1.663  0.860E-01  0.860E-01
  -1.653  0.879E-01  0.879E-01
  -1.643  0.902E-01  0.902E-01
  -1.633  0.928E-01  0.928E-01
  -1.623  0.957E-01  0.957E-01
  -1.613  0.988E-01  0.988E-01
  -1.603  0.102E+00  0.102E+00
  -1.593  0.105E+00  0.105E+00
  -1.583  0.108E+00  0.108E+00
  -1.573  0.110E+00  0.110E+00
  -1.563  0.112E+00  0.112E+00
  -1.553  0.114E+00  0.114E+00
  -1.543  0.115E+00  0.115E+00
  -1.533  0.115E+00  0.115E+00
  -1.523  0.114E+00  0.114E+00
  -1.513  0.113E+00  0.113E+00
  -1.503  0.111E+00  0.111E+00
  -1.493  0.108E+00  0.108E+00
  -1.483  0.105E+00  0.105E+00
  -1.473  0.101E+00  0.101E+00
  -1.463  0.969E-01  0.969E-01
  -1.453  0.928E-01  0.928E-01
  -1.443  0.888E-01  0.888E-01
  -1.433  0.849E-01  0.849E-01
  -1.423  0.812E-01  0.812E-01
  -1.413  0.778E-01  0.778E-01
  -1.403  0.749E-01  0.749E-01
  -1.393  0.723E-01  0.723E-01
  -1.383  0.702E-01  0.702E-01
  -1.373  0.684E-01  0.684E-01
  -1.363  0.670E-01  0.670E-01
  -1.353  0.659E-01  0.659E-01
  -1.343  0.649E-01  0.649E-01
  -1.333  0.641E-01  0.641E-01
  -1.323  0.633E-01  0.633E-01
  -1.313  0.625E-01  0.625E-01
  -1.303  0.617E-01  0.617E-01
  -1.293  0.607E-01  0.607E-01
  -1.283  0.596E-01  0.596E-01
  -1.273  0.585E-01  0.585E-01
  -1.263  0.573E-01  0.573E-01
  -1.253  0.560E-01  0.560E-01
  -1.243  0.548E-01  0.548E-01
  -1.233  0.537E-01  0.537E-01
  -1.223  0.528E-01  0.528E-01
  -1.213  0.521E-01  0.521E-01
  -1.203  0.518E-01  0.518E-01
  -1.193  0.518E-01  0.518E-01
  -1.183  0.522E-01  0.522E-01
  -1.173  0.530E-01  0.530E-01
  -1.163  0.543E-01  0.543E-01
  -1.153  0.560E-01  0.560E-01
  -1.143  0.581E-01  0.581E-01
  -1.133  0.605E-01  0.605E-01
  -1.123  0.633E-01  0.633E-01
  -1.113  0.663E-01  0.663E-01
  -1.103  0.696E-01  0.696E-01
  -1.093  0.731E-01  0.731E-01
  -1.083  0.767E-01  0.767E-01
  -1.073  0.804E-01  0.804E-01
  -1.063  0.843E-01  0.843E-01
  -1.053  0.883E-01  0.883E-01
  -1.043  0.924E-01  0.924E-01
  -1.033  0.967E-01  0.967E-01
  -1.023  0.101E+00  0.101E+00
  -1.013  0.106E+00  0.106E+00
  -1.003  0.111E+00  0.111E+00
  -0.993  0.116E+00  0.116E+00
  -0.983  0.122E+00  0.122E+00
  -0.973  0.128E+00  0.128E+00
  -0.963  0.135E+00  0.135E+00
  -0.953  0.142E+00  0.142E+00
  -0.943  0.149E+00  0.149E+00
  -0.933  0.157E+00  0.157E+00
  -0.923  0.165E+00  0.165E+00
  -0.913  0.173E+00  0.173E+00
  -0.903  0.182E+00  0.182E+00
  -0.893  0.191E+00  0.191E+00
  -0.883  0.200E+00  0.200E+00
  -0.873  0.209E+00  0.209E+00
  -0.863  0.218E+00  0.218E+00
  -0.853  0.226E+00  0.226E+00
  -0.843  0.234E+00  0.234E+00
  -0.833  0.243E+00  0.243E+00
  -0.823  0.250E+00  0.250E+00
  -0.813  0.257E+00  0.257E+00
  -0.803  0.264E+00  0.264E+00
  -0.793  0.271E+00  0.271E+00
  -0.783  0.277E+00  0.277E+00
  -0.773  0.282E+00  0.282E+00
  -0.763  0.287E+00  0.287E+00
  -0.753  0.291E+00  0.291E+00
  -0.743  0.295E+00  0.295E+00
  -0.733  0.298E+00  0.298E+00
  -0.723  0.300E+00  0.300E+00
  -0.713  0.302E+00  0.302E+00
  -0.703  0.302E+00  0.302E+00
  -0.693  0.302E+00  0.302E+00
  -0.683  0.300E+00  0.300E+00
  -0.673  0.297E+00  0.297E+00
  -0.663  0.293E+00  0.293E+00
  -0.653  0.288E+00  0.288E+00
  -0.643  0.282E+00  0.282E+00
  -0.633  0.274E+00  0.274E+00
  -0.623  0.264E+00  0.264E+00
  -0.613  0.254E+00  0.254E+00
  -0.603  0.243E+00  0.243E+00
  -0.593  0.230E+00  0.230E+00
  -0.583  0.217E+00  0.217E+00
  -0.573  0.204E+00  0.204E+00
  -0.563  0.190E+00  0.190E+00
  -0.553  0.176E+00  0.176E+00
  -0.543  0.162E+00  0.162E+00
  -0.533  0.148E+00  0.148E+00
  -0.523  0.135E+00  0.135E+00
  -0.513  0.122E+00  0.122E+00
  -0.503  0.110E+00  0.110E+00
  -0.493  0.985E-01  0.985E-01
  -0.483  0.882E-01  0.882E-01
  -0.473  0.790E-01  0.790E-01
  -0.463  0.707E-01  0.707E-01
  -0.453  0.636E-01  0.636E-01
  -0.443  0.575E-01  0.575E-01
  -0.433  0.524E-01  0.524E-01
  -0.423  0.484E-01  0.484E-01
  -0.413  0.452E-01  0.452E-01
  -0.403  0.430E-01  0.430E-01
  -0.393  0.415E-01  0.415E-01
  -0.383  0.407E-01  0.407E-01
  -0.373  0.405E-01  0.405E-01
  -0.363  0.408E-01  0.408E-01
  -0.353  0.415E-01  0.415E-01
  -0.343  0.424E-01  0.424E-01
  -0.333  0.434E-01  0.434E-01
  -0.323  0.445E-01  0.445E-01
  -0.313  0.456E-01  0.456E-01
  -0.303  0.465E-01  0.465E-01
  -0.293  0.473E-01  0.473E-01
  -0.283  0.478E-01  0.478E-01
  -0.273  0.481E-01  0.481E-01
  -0.263  0.481E-01  0.481E-01
  -0.253  0.479E-01  0.479E-01
  -0.243  0.474E-01  0.474E-01
  -0.233  0.468E-01  0.468E-01
  -0.223  0.462E-01  0.462E-01
  -0.213  0.455E-01  0.455E-01
  -0.203  0.449E-01  0.449E-01
  -0.193  0.443E-01  0.443E-01
  -0.183  0.440E-01  0.440E-01
  -0.173  0.440E-01  0.440E-01
  -0.163  0.442E-01  0.442E-01
  -0.153  0.448E-01  0.448E-01
  -0.143  0.457E-01  0.457E-01
  -0.133  0.469E-01  0.469E-01
  -0.123  0.485E-01  0.485E-01
  -0.113  0.503E-01  0.503E-01
  -0.103  0.525E-01  0.525E-01
  -0.093  0.548E-01  0.548E-01
  -0.083  0.572E-01  0.572E-01
  -0.073  0.597E-01  0.597E-01
  -0.063  0.623E-01  0.623E-01
  -0.053  0.648E-01  0.648E-01
  -0.043  0.673E-01  0.673E-01
  -0.033  0.696E-01  0.696E-01
  -0.023  0.718E-01  0.718E-01
  -0.013  0.739E-01  0.739E-01
  -0.003  0.758E-01  0.758E-01
   0.007  0.776E-01  0.776E-01
   0.017  0.791E-01  0.791E-01
   0.027  0.805E-01  0.805E-01
   0.037  0.816E-01  0.816E-01
   0.047  0.826E-01  0.826E-01
   0.057  0.833E-01  0.833E-01
   0.067  0.837E-01  0.837E-01
   0.077  0.839E-01  0.839E-01
   0.087  0.837E-01  0.837E-01
   0.097  0.832E-01  0.832E-01
   0.107  0.822E-01  0.822E-01
   0.117  0.809E-01  0.809E-01
   0.127  0.791E-01  0.791E-01
   0.137  0.769E-01  0.769E-01
   0.147  0.742E-01  0.742E-01
   0.157  0.712E-01  0.712E-01
   0.167  0.677E-01  0.677E-01
   0.177  0.639E-01  0.639E-01
   0.187  0.598E-01  0.598E-01
   0.197  0.556E-01  0.556E-01
   0.207  0.511E-01  0.511E-01
   0.217  0.466E-01  0.466E-01
   0.227  0.422E-01  0.422E-01
   0.237  0.378E-01  0.378E-01
   0.247  0.335E-01  0.335E-01
   0.257  0.294E-01  0.294E-01
   0.267  0.256E-01  0.256E-01
   0.277  0.221E-01  0.221E-01
   0.287  0.189E-01  0.189E-01
   0.297  0.160E-01  0.160E-01
   0.307  0.134E-01  0.134E-01
   0.317  0.112E-01  0.112E-01
